--> pclanilIR-out0.jdx
#1:
# Absorbance=false
# Absorbance\tDataType=B
# Continuous=true
# Continuous\tDataType=B
# DataClass=XYDATA
# DataClass\tDataType=S
# DataType=INFRARED SPECTRUM
# DataType\tDataType=S
# Date=00/06/08
# Date\tDataType=S
# Format=NIR
# Format\tDataType=S
# HZtoPPM=false
# HZtoPPM\tDataType=B
# Increasing=false
# Increasing\tDataType=B
# Insert\ Timestamp=2000-01-01 00\:00\:00
# Insert\ Timestamp\tDataType=S
# Instrument=unknown
# Instrument\tDataType=S
# Jcampdx=4.24
# Jcampdx\tDataType=S
# ObservedFreq=1.7976931348623157E308
# ObservedFreq\tDataType=N
# Origin=Chem. Dep`t, UWI, JAMAICA
# Origin\tDataType=S
# Owner=public domain
# Owner\tDataType=S
# Parent\ ID=-1
# Pathlength=
# Pathlength\tDataType=S
# Sample\ ID=00/06/08 14\:33\:00
# Sample\ ID\tDataType=S
# Source=pclanilIR.jdx
# Source\tDataType=S
# Time=14\:33\:00
# Time\tDataType=S
# Title=para-chloroaniline
# Title\tDataType=S
# Transmittance=true
# Transmittance\tDataType=B
# XFactor=0.1220741
# XFactor\tDataType=N
# XUnits=1/CM
# XUnits\tDataType=S
# YFactor=2.119791E-5
# YFactor\tDataType=N
# YUnits=TRANSMITTANCE
# YUnits\tDataType=S
waveno,amplitude
400.03683,0.6372728
401.99002,0.65033066
404.04034,0.65794075
406.04034,0.66209555
408.04034,0.6583223
410.04034,0.6512634
412.04034,0.6545067
414.04037,0.66779774
416.04037,0.6684549
418.04037,0.6542311
420.04037,0.6653388
422.04037,0.6760861
424.04037,0.6769553
426.04037,0.68121606
428.04037,0.6815764
430.04037,0.6794142
432.04037,0.6780152
434.04037,0.6785663
436.04037,0.6774004
438.04037,0.67589533
440.04037,0.6762769
442.04037,0.6751958
444.04037,0.6783331
446.04037,0.6801561
448.04037,0.6767645
450.0404,0.67184657
452.0404,0.6690484
454.0439,0.67087144
456.0439,0.6726733
458.0439,0.67460227
460.0439,0.67521703
462.0439,0.67477185
464.0439,0.67297006
466.0439,0.67038393
468.0439,0.6672254
470.04395,0.66648346
472.04395,0.667077
474.04395,0.66661066
476.04395,0.66497844
478.04395,0.6641305
480.04395,0.6640033
482.04395,0.6632614
484.04395,0.66194713
486.04395,0.6579831
488.04395,0.65478224
490.04395,0.6541463
492.04395,0.65145415
494.04395,0.6454552
496.04395,0.6393502
498.04395,0.63328755
500.04395,0.62247664
502.04395,0.6015755
504.04395,0.56829476
505.95386,0.5304141
507.95386,0.5181405
509.95386,0.5618506
511.95386,0.62404525
513.95386,0.65957296
515.95386,0.673288
517.95386,0.6797746
519.95386,0.6816612
521.95386,0.68132204
523.95386,0.6798382
525.95386,0.67892665
527.95386,0.677782
529.95386,0.67718846
531.95386,0.6776972
533.95386,0.67684925
535.95386,0.67566216
537.95386,0.67511106
539.95386,0.6747507
541.95386,0.6755562
543.95386,0.6762769
545.95386,0.6766797
547.95386,0.6749415
549.9539,0.67388153
551.9539,0.6747507
553.9539,0.67642534
555.9539,0.6765525
557.9539,0.67508984
559.9539,0.67390275
561.96747,0.67258847
563.96747,0.671783
565.96747,0.6715074
567.96747,0.67074424
569.96747,0.67169815
571.96747,0.67313963
573.9675,0.67275804
575.9675,0.6714438
577.9675,0.6725673
579.9675,0.6736272
581.9675,0.6734364
583.9675,0.67307603
585.9675,0.6724401
587.9675,0.671465
589.9675,0.6711894
591.9675,0.67093503
593.9675,0.66995996
595.9675,0.6694724
597.9675,0.669854
599.9675,0.67082906
601.9675,0.6695572
603.9675,0.6683277
605.9675,0.66906965
607.9675,0.6690484
609.9675,0.6679673
611.9675,0.667713
613.9675,0.6666531
615.9675,0.6643637
617.9675,0.6619895
619.9675,0.65974253
621.9675,0.65669006
624.03625,0.65334076
626.03625,0.6499067
628.03625,0.64664227
630.03625,0.64267826
632.03625,0.6346442
634.03625,0.62135315
636.03625,0.6032289
638.03625,0.58400244
640.03625,0.5705205
642.03625,0.574103
644.03625,0.6085072
646.03625,0.657114
648.03625,0.68518007
650.03625,0.69332004
652.03625,0.69459194
654.03625,0.6939772
656.03625,0.6927477
658.03625,0.6916666
660.03625,0.6893984
662.0363,0.68723625
664.0363,0.6860704
666.0363,0.6865791
668.00305,0.68507403
670.00305,0.68308145
672.00305,0.683251
674.00305,0.68276346
676.00305,0.68206394
678.00305,0.6824667
680.00305,0.6827423
682.00305,0.6828695
684.00305,0.68219113
686.00305,0.6809193
688.0031,0.68005013
690.0031,0.6797746
692.0031,0.67911744
694.0031,0.6766797
696.0031,0.6731184
698.0031,0.66913325
700.0031,0.67012954
702.0031,0.6753866
704.0031,0.6787571
706.0031,0.67930824
708.0031,0.679393
710.0031,0.67968976
712.0031,0.67901146
714.0031,0.6781423
716.0031,0.6783331
718.0031,0.67888427
720.0031,0.67930824
722.0031,0.6790962
724.0031,0.67882067
726.0031,0.67831194
728.0031,0.6784815
730.0031,0.6797322
731.99835,0.6804105
733.99835,0.6802197
735.99835,0.6792234
737.99835,0.6789055
739.99835,0.67924464
741.99835,0.6795414
743.99835,0.6787783
745.99835,0.6779516
747.99835,0.6788419
749.99835,0.67992294
751.99835,0.6803469
753.99835,0.6809193
755.99835,0.6809829
757.99835,0.6812372
759.99835,0.68096167
761.99835,0.6803045
763.99835,0.68013495
765.99835,0.67975336
767.99835,0.67918104
769.99835,0.67899024
771.99835,0.6781635
773.99835,0.6775064
775.99835,0.6769553
777.99835,0.67687047
779.99835,0.6775912
781.99835,0.67799395
783.99835,0.67693406
785.99835,0.6762769
787.9984,0.6755138
789.9984,0.67411476
791.9984,0.6727369
793.9984,0.67108345
795.9984,0.6694512
797.9984,0.66767055
799.9634,0.66584754
801.9634,0.6633886
803.96344,0.65982735
805.96344,0.6542523
807.96344,0.6467906
809.96344,0.6372092
811.96344,0.62343055
813.96344,0.60206306
815.96344,0.5688247
817.96344,0.5256234
819.96344,0.49140996
821.96344,0.48744595
823.96344,0.5082199
825.96344,0.5214686
827.96344,0.5091738
829.96344,0.48494458
831.96344,0.47900918
833.96344,0.50949174
835.96344,0.5626561
837.9954,0.6100547
839.9954,0.6401557
841.9954,0.6575168
843.9954,0.6677766
845.9954,0.67377555
847.9954,0.6774428
849.9954,0.67985934
851.9954,0.6812372
853.9954,0.6825727
855.9954,0.68371737
857.9954,0.68416256
859.9954,0.6845229
861.9954,0.6853072
863.9954,0.6856888
865.9954,0.6860068
867.9954,0.6866003
869.9954,0.6873846
871.9954,0.6876178
873.9954,0.68806297
875.9954,0.68829614
877.9954,0.687957
879.9954,0.68804175
881.9954,0.68874127
883.9954,0.6885717
885.9954,0.687745
887.9954,0.6868335
889.9954,0.6864943
891.9954,0.6868759
894.04755,0.6871939
896.04755,0.687533
898.04755,0.6875966
900.04755,0.6874482
902.04755,0.68755424
904.04755,0.68721503
906.04755,0.6869395
908.04755,0.6877026
910.04755,0.68819016
912.04755,0.68838096
914.04755,0.68838096
916.04755,0.6884445
918.04755,0.6877238
920.04755,0.68698186
922.04755,0.6866639
924.04755,0.6857524
926.0476,0.68282706
928.0476,0.68127966
930.0476,0.68333584
932.0476,0.68554044
934.0476,0.68509525
936.0476,0.6845441
938.0476,0.6855192
940.0476,0.68615514
942.0476,0.68598557
944.0476,0.6858372
946.0476,0.685604
948.0476,0.6854344
950.0476,0.6852012
952.0476,0.68496805
954.0476,0.6849469
956.0476,0.68503165
958.0476,0.6848621
960.0476,0.6843745
962.0476,0.6843109
964.0476,0.68422616
966.0476,0.68378097
968.0476,0.6834206
970.0144,0.68339944
972.0144,0.6831874
974.0144,0.68289065
976.0144,0.68219113
978.0144,0.68151283
980.0144,0.6809193
982.0144,0.6806861
984.0144,0.6806013
986.0144,0.6804105
988.0144,0.68000776
990.0144,0.67975336
992.0144,0.67920226
994.0144,0.6782907
996.0144,0.6768281
998.0144,0.6745387
1000.0144,0.67076546
1002.0144,0.6628162
1004.0144,0.6507335
1006.0144,0.6470238
1008.0144,0.65760154
1010.0144,0.66879404
1012.0144,0.6733092
1014.0144,0.67460227
1016.0144,0.67441154
1018.0144,0.67390275
1020.0144,0.673818
1022.0144,0.67364836
1024.0144,0.6735
1026.0144,0.67313963
1028.0144,0.673394
1030.0144,0.67358476
1032.0144,0.6735424
1034.0464,0.67320323
1036.0464,0.67307603
1038.0464,0.67252487
1040.0464,0.67233413
1042.0464,0.6719949
1044.0464,0.6714438
1046.0464,0.67032033
1048.0464,0.66868806
1050.0464,0.6664623
1052.0464,0.66536
1054.0464,0.66673785
1056.0464,0.6694512
1058.0464,0.6713166
1060.0464,0.6718042
1062.0464,0.6713378
1064.0464,0.6704687
1066.0464,0.66968435
1068.0464,0.6681581
1070.0464,0.66667426
1072.0464,0.6662715
1074.0464,0.66599596
1076.0464,0.6642789
1078.0464,0.66188353
1080.0464,0.65849185
1082.0465,0.65346795
1084.0465,0.6419575
1086.0465,0.6115173
1088.0465,0.56144786
1089.993,0.5502765
1091.993,0.5773039
1093.993,0.60706574
1095.993,0.6521961
1097.993,0.6748143
1099.993,0.6766797
1101.9932,0.6755138
1103.9932,0.6740087
1105.9932,0.6722917
1107.9932,0.67008716
1109.9932,0.6667167
1111.9932,0.6619259
1113.9932,0.6564569
1115.9932,0.65247166
1117.9932,0.65202653
1119.9932,0.6546975
1121.9932,0.65730476
1123.9932,0.6585979
1125.9932,0.6599969
1127.9932,0.66290104
1129.9932,0.6675646
1131.9932,0.6717194
1133.9498,0.67415714
1135.9498,0.67498386
1137.9498,0.6750686
1139.9498,0.67485666
1141.9498,0.67409354
1143.9498,0.6733728
1145.9498,0.67207974
1147.9498,0.6709139
1149.9498,0.67063826
1151.9498,0.67070186
1153.9498,0.67038393
1155.9498,0.67006594
1157.9498,0.6697904
1159.9498,0.6693664
1161.9498,0.6686457
1163.9498,0.6681581
1165.9498,0.66724664
1167.9498,0.66574156
1169.9498,0.6635794
1171.9498,0.6603361
1173.9498,0.6557149
1175.9498,0.6487408
1177.9498,0.62951434
1179.9498,0.59570366
1181.9498,0.57766426
1183.9498,0.5842992
1185.9498,0.62404525
1188.0103,0.6666319
1190.0103,0.6785451
1192.0103,0.6787571
1194.0103,0.67767596
1196.0103,0.6768281
1198.0103,0.6758106
1200.0103,0.67489904
1202.0103,0.6736696
1204.0103,0.6728641
1206.0103,0.6722493
1208.0103,0.671677
1210.0103,0.67106223
1212.0103,0.6708503
1214.0103,0.6706807
1216.0103,0.67025673
1218.0104,0.6697268
1220.0104,0.6693452
1222.0104,0.66875166
1224.0104,0.66811574
1226.0104,0.6674162
1228.0104,0.6663775
1230.0104,0.665466
1232.0104,0.66487247
1234.0104,0.66396093
1236.0104,0.66309184
1238.0104,0.6624983
1240.0104,0.6619895
1242.0104,0.66177756
1244.0104,0.66107804
1246.0104,0.6600605
1248.0038,0.65883106
1250.0038,0.6573896
1252.0038,0.6555666
1254.0038,0.6534468
1256.0038,0.6511786
1258.0038,0.64844406
1260.0038,0.6452008
1262.0038,0.6416819
1264.0038,0.6378663
1266.0038,0.6340295
1268.0038,0.62919635
1270.0038,0.6224554
1272.0038,0.614909
1274.0038,0.6071081
1276.0038,0.5985442
1278.0038,0.58883554
1280.0038,0.57721907
1282.0038,0.563928
1284.0038,0.5467577
1286.0038,0.52180773
1288.0038,0.4957767
1289.989,0.48833627
1291.989,0.5099793
1293.989,0.55850136
1295.989,0.6134463
1297.989,0.64971596
1299.989,0.6666319
1301.989,0.67398757
1303.989,0.677146
1305.989,0.6782695
1307.989,0.6782695
1309.989,0.6774004
1311.989,0.6766585
1313.989,0.67604375
1315.989,0.67585295
1317.989,0.6755562
1319.989,0.6742419
1321.989,0.6725673
1323.989,0.6713802
1325.989,0.67038393
1327.989,0.66993874
1329.989,0.6701507
1331.989,0.67032033
1333.989,0.67038393
1335.989,0.6707231
1337.989,0.67106223
1339.989,0.67080784
1341.989,0.67082906
1343.989,0.6711046
1345.989,0.6709775
1347.9843,0.67057467
1349.9843,0.66995996
1351.9843,0.6689637
1353.9843,0.6682641
1355.9843,0.6678402
1357.9843,0.6675858
1359.9843,0.6675222
1361.9843,0.66724664
1363.9843,0.66648346
1365.9843,0.6665895
1367.9843,0.6669074
1369.9843,0.6667591
1371.9843,0.6663775
1373.9843,0.66593236
1375.9843,0.66536
1377.9843,0.66485125
1379.9843,0.6641517
1381.9843,0.6626255
1383.9843,0.66078126
1385.9843,0.6603997
1387.9843,0.6612476
1389.9843,0.66169274
1391.9843,0.66169274
1393.9843,0.6613536
1395.9843,0.6601877
1397.9843,0.659467
1399.9843,0.6591066
1401.9843,0.6592762
1403.9843,0.659467
1405.9843,0.65893704
1407.9843,0.6584283
1409.9843,0.6581739
1411.9843,0.65755916
1413.9843,0.65673244
1415.941,0.65592694
1417.941,0.6553334
1419.941,0.6536375
1421.941,0.65253526
1423.941,0.6518145
1425.941,0.6507335
1427.941,0.64977956
1429.941,0.6481473
1431.941,0.64562476
1433.941,0.643505
1435.941,0.64053726
1437.941,0.634517
1439.941,0.6315705
1441.941,0.63171893
1443.941,0.63417786
1445.941,0.6368276
1447.941,0.63858706
1449.941,0.6394138
1451.941,0.63932896
1453.941,0.63865066
1455.941,0.6377815
1457.941,0.63343596
1459.941,0.63019264
1461.941,0.6283696
1463.941,0.62639827
1465.941,0.6216711
1467.941,0.6167956
1470.0282,0.61336154
1472.0282,0.6113265
1474.0282,0.60914314
1476.0282,0.60486114
1478.0282,0.59708154
1480.0282,0.588348
1482.0282,0.5732763
1484.0282,0.55324423
1486.0282,0.53158
1488.0282,0.5085379
1490.0282,0.46431902
1492.0282,0.4025483
1494.0282,0.3822407
1496.0282,0.39773637
1498.0282,0.415903
1500.0282,0.4018488
1502.0282,0.4371857
1504.0282,0.49876562
1506.0282,0.55320185
1508.0133,0.6336479
1510.0133,0.6543795
1512.0133,0.6620531
1514.0133,0.6683277
1516.0133,0.67169815
1518.0133,0.6719949
1520.0133,0.67265207
1522.0133,0.67074424
1524.0133,0.669112
1526.0133,0.6674374
1528.0133,0.6671406
1530.0133,0.66807336
1532.0133,0.67000234
1534.0133,0.67099863
1536.0133,0.67074424
1538.0133,0.67080784
1540.0133,0.66976917
1542.0133,0.6661867
1544.0133,0.66389734
1546.0133,0.66184115
1548.0133,0.6610568
1550.0133,0.659255
1552.0133,0.657114
1554.0133,0.6553758
1556.0133,0.6540191
1558.0133,0.65565133
1560.0133,0.65535456
1562.0134,0.65560895
1564.0134,0.65586334
1565.96,0.6550578
1567.96,0.6541675
1569.96,0.65145415
1571.96,0.64770216
1573.96,0.64492524
1575.96,0.64070684
1577.96,0.63782394
1579.96,0.63718796
1581.9601,0.63536495
1583.9601,0.633012
1585.9601,0.6311042
1587.9601,0.6288148
1589.9601,0.6261439
1591.9601,0.62315494
1593.9601,0.61921215
1595.9601,0.61291635
1597.9601,0.604734
1599.9601,0.5961064
1601.9601,0.58658856
1603.9601,0.5737214
1605.9601,0.557505
1607.9601,0.53624356
1609.9719,0.50749916
1611.9719,0.4757447
1613.9719,0.44757268
1615.9719,0.42631117
1617.9719,0.4230043
1619.9719,0.44570726
1621.9719,0.4796451
1623.9719,0.53497165
1625.9719,0.5743574
1627.9719,0.5973571
1629.9719,0.61613846
1631.9719,0.6258895
1633.9719,0.63405067
1635.9719,0.6431446
1637.9719,0.64977956
1639.9719,0.6520053
1641.9719,0.6548246
1643.9719,0.6574108
1645.9672,0.6607388
1647.9672,0.665254
1649.9672,0.6674162
1651.9672,0.6695784
1653.9672,0.67258847
1655.9672,0.67265207
1657.9672,0.67364836
1659.9672,0.6746871
1661.9672,0.67521703
1663.9672,0.67479306
1665.9672,0.6749415
1667.9672,0.675747
1669.9672,0.67572576
1671.9672,0.67523825
1673.9672,0.67617095
1675.9672,0.6766585
1677.9672,0.6765101
1679.9672,0.6761921
1681.9672,0.67636174
1683.9672,0.6764889
1685.9672,0.67411476
1687.9672,0.6743903
1689.9672,0.67477185
1691.9672,0.6754502
1693.9672,0.67636174
1695.9672,0.6765313
1697.9672,0.67589533
1699.9672,0.6761497
1701.9672,0.67566216
1703.9672,0.6761497
1705.9672,0.6762133
1707.9672,0.6760225
1709.9672,0.6763193
1711.9672,0.67610735
1713.944,0.675641
1715.944,0.6757046
1717.944,0.67483544
1719.944,0.6740087
1721.944,0.6747083
1723.9441,0.6747507
1725.9441,0.6743903
1727.9441,0.67434794
1729.9441,0.6735212
1731.9441,0.6729913
1733.9441,0.6725673
1735.9441,0.6714226
1737.9441,0.67227054
1739.9441,0.6723129
1741.9441,0.6719949
1743.9441,0.6715498
1745.9441,0.67188895
1747.9441,0.6720585
1749.9441,0.67127424
1751.9441,0.6702779
1753.9441,0.6704687
1755.9441,0.67063826
1757.9441,0.6695572
1759.9441,0.6693876
1761.9441,0.6695784
1763.9441,0.6694512
1765.9441,0.67012954
1767.9441,0.67099863
1769.9441,0.671359
1771.9441,0.6712954
1773.9441,0.6715074
1775.9441,0.67210096
1777.9441,0.67258847
1779.9441,0.6728641
1781.9441,0.67258847
1783.9441,0.67258847
1785.9441,0.67214334
1788.0062,0.671783
1790.0062,0.67188895
1792.0062,0.6717406
1794.0062,0.6713166
1796.0062,0.67114705
1798.0062,0.67108345
1800.0062,0.671359
1802.0062,0.671253
1804.0062,0.67108345
1806.0062,0.67101985
1808.0062,0.6707231
1810.0062,0.67025673
1812.0062,0.6697268
1814.0062,0.6693876
1816.0062,0.6693028
1818.0062,0.6690908
1820.0062,0.66873044
1822.0062,0.6686669
1824.0062,0.66868806
1826.0062,0.6686669
1828.0063,0.66906965
1830.0063,0.6690484
1832.0063,0.66887885
1834.0063,0.6690908
1836.0063,0.6693876
1838.0063,0.66926044
1840.0063,0.66887885
1842.0063,0.66879404
1844.0063,0.66824293
1846.0063,0.66769177
1848.0063,0.667713
1850.0063,0.66760695
1852.0063,0.66779774
1854.0063,0.66788256
1856.0063,0.6679037
1858.0063,0.66762817
1860.0063,0.66688627
1862.0063,0.6662715
1864.0063,0.66610193
1866.0063,0.66591114
1868.0063,0.665466
1870.0063,0.66402453
1872.0063,0.6624771
1873.9547,0.6609932
1875.9547,0.65883106
1877.9547,0.65567255
1879.9547,0.65221727
1881.9547,0.65147537
1883.9547,0.6546975
1885.9547,0.65967894
1887.9547,0.6635794
1889.9547,0.6658264
1891.9547,0.6671406
1893.9547,0.66779774
1895.9547,0.6679673
1897.9547,0.66800976
1899.9547,0.6678402
1901.9547,0.66767055
1903.9547,0.6677766
1905.9547,0.66767055
1907.9547,0.6674374
1909.9547,0.66705585
1911.9547,0.66680145
1913.9547,0.66667426
1915.9547,0.66661066
1917.9547,0.6662927
1919.9547,0.6656356
1921.9547,0.66559315
1923.9547,0.6658899
1925.9547,0.6663775
1927.9547,0.6666319
1929.9547,0.6663563
1931.9548,0.6661867
1933.9548,0.6662291
1935.9548,0.66616553
1937.9548,0.66599596
1939.9548,0.66616553
1941.9548,0.6663351
1944.027,0.66612315
1946.027,0.66593236
1948.027,0.66559315
1950.027,0.6654448
1952.027,0.66555077
1954.027,0.66555077
1956.027,0.66523284
1958.027,0.66536
1960.027,0.6655084
1962.027,0.66555077
1964.027,0.66559315
1966.0271,0.665466
1968.0271,0.66499966
1970.0271,0.66472405
1972.0271,0.6644273
1974.0271,0.6641305
1976.0271,0.66402453
1978.0271,0.6640033
1980.0271,0.6640033
1982.0271,0.6640669
1984.0271,0.66398215
1986.0271,0.66353697
1988.0271,0.6631766
1990.0271,0.6633886
1992.0271,0.6635582
1994.0271,0.663325
1996.0271,0.66309184
1998.0271,0.663007
2000.0271,0.6628798
2002.0271,0.6625407
2004.0271,0.6623075
2006.0271,0.6621379
2008.0271,0.66190475
2010.0271,0.6619259
2012.0271,0.6620743
2014.0271,0.6621803
2016.0271,0.6623499
2018.0271,0.6624135
2020.0271,0.6626043
2022.0271,0.66279507
2024.0271,0.6628798
2026.0271,0.66277385
2028.0271,0.66279507
2030.0271,0.66277385
2032.0271,0.66279507
2034.0271,0.66271025
2036.0271,0.66245586
2038.0271,0.6624135
2040.0525,0.6623287
2042.0525,0.6620531
2044.0525,0.66203195
2046.0525,0.6621379
2048.0525,0.6621379
2050.0525,0.66194713
2052.0525,0.6617352
2054.0525,0.66181993
2056.0525,0.66175634
2058.0525,0.66158676
2060.0525,0.6614384
2062.0525,0.66152316
2064.0525,0.6617352
2066.0525,0.66175634
2068.0525,0.66162914
2070.0525,0.6614808
2072.0525,0.6614384
2074.0525,0.6612476
2076.0525,0.66101444
2078.0525,0.66095084
2080.0525,0.66097206
2082.0525,0.66082364
2084.0525,0.6605481
2086.0525,0.66044205
2088.0525,0.6601029
2090.0525,0.6594034
2092.0525,0.6591702
2094.0525,0.6592126
2096.0525,0.6590854
2098.0525,0.65893704
2100.0525,0.65889466
2102.0525,0.6589158
2104.0525,0.65900064
2106.0525,0.6593398
2108.0525,0.65957296
2110.0525,0.6598486
2112.0525,0.66008174
2114.0525,0.6601665
2116.0525,0.6602725
2118.0525,0.6601029
2120.0525,0.65982735
2122.0525,0.6596578
2124.0525,0.6597214
2126.0525,0.65974253
2128.0525,0.6598486
2130.0525,0.66001815
2132.0525,0.6600605
2134.0525,0.6600605
2136.0525,0.6599333
2138.0596,0.6596578
2140.0596,0.6596578
2142.0596,0.6597214
2144.0596,0.6596578
2146.0596,0.65970016
2148.0596,0.65970016
2150.0596,0.6595306
2152.0596,0.659255
2154.0596,0.6589794
2156.0596,0.65887344
2158.0596,0.6588522
2160.0596,0.65889466
2162.0596,0.65893704
2164.0596,0.65880984
2166.0596,0.6586615
2168.0596,0.6586615
2170.0596,0.6587251
2172.0596,0.6584495
2174.0596,0.6582163
2176.0596,0.6581527
2178.0596,0.6579831
2180.0596,0.65768635
2182.0596,0.65768635
2184.0596,0.6579619
2186.0596,0.6581103
2188.0596,0.6582375
2190.0598,0.6582375
2192.0598,0.6581739
2194.0598,0.6582375
2196.0598,0.6583011
2198.0598,0.6583223
2200.0598,0.6583223
2202.0598,0.6582163
2204.0598,0.6581527
2206.0598,0.6583647
2208.0598,0.6583859
2210.0598,0.6581739
2212.0598,0.6579619
2214.0598,0.6579195
2216.0598,0.6577923
2218.0598,0.657538
2220.0598,0.6574532
2222.0598,0.65730476
2224.0598,0.65705043
2226.0598,0.6570292
2228.0598,0.657114
2230.0598,0.6571988
2232.0598,0.65722
2234.0598,0.6571776
2236.0598,0.6571564
2238.0598,0.6569656
2240.0598,0.65679604
2242.0466,0.6568384
2244.0466,0.65675366
2246.0466,0.6565205
2248.0466,0.6563933
2250.0466,0.65656286
2252.0466,0.65649927
2254.0466,0.6562449
2256.0466,0.6562873
2258.0466,0.6564569
2260.0466,0.65656286
2262.0466,0.65681726
2264.0466,0.65692323
2266.0466,0.65660524
2268.0466,0.6563721
2270.0466,0.6565205
2272.0466,0.65649927
2274.0466,0.6562661
2276.0466,0.6560753
2278.0466,0.6559057
2280.0466,0.65567255
2282.0466,0.655397
2284.0466,0.6552274
2286.0466,0.6551214
2288.0466,0.65480345
2290.0466,0.65478224
2292.0466,0.6551638
2294.0466,0.6550578
2296.0466,0.6545067
2298.0466,0.6543371
2300.0466,0.6544007
2302.0466,0.6540191
2304.0466,0.6531288
2306.0466,0.65266246
2308.0466,0.65221727
2310.0466,0.65170854
2312.0466,0.65185696
2314.0466,0.65215373
2316.0466,0.6523869
2318.0466,0.65240806
2320.0466,0.6522385
2322.0466,0.6520053
2324.0466,0.6515602
2326.0237,0.6510938
2328.0237,0.6506699
2330.0237,0.65069103
2332.0237,0.6503519
2334.0237,0.64975834
2336.0237,0.64988554
2338.0237,0.64969474
2340.0237,0.649292
2342.0237,0.64982194
2344.0237,0.65069103
2346.0237,0.65090305
2348.0237,0.6512846
2350.0237,0.65172976
2352.0237,0.65170854
2354.0237,0.65071225
2356.0237,0.64977956
2358.0237,0.6494192
2360.0237,0.6487408
2362.0237,0.64888924
2364.0237,0.6492708
2366.0237,0.64965236
2368.0237,0.6499703
2370.0237,0.6501611
2372.0237,0.65052146
2374.0237,0.65075463
2376.0237,0.6510514
2378.0237,0.6517509
2380.0237,0.65234447
2382.0237,0.65272605
2384.0237,0.653044
2386.0237,0.65353155
2388.0237,0.65359515
2390.0237,0.65346795
2392.0237,0.6531288
2394.0237,0.6530016
2396.0237,0.6531712
2398.0237,0.6530652
2400.0205,0.6526837
2402.0205,0.65266246
2404.0205,0.65240806
2406.0205,0.6521749
2408.0205,0.65234447
2410.0205,0.65259886
2412.0205,0.6525565
2414.0205,0.65251404
2416.0205,0.6524293
2418.0205,0.6521113
2420.0205,0.65209013
2422.0205,0.6524293
2424.0205,0.65240806
2426.0205,0.65209013
2428.0205,0.65185696
2430.0205,0.65170854
2432.0205,0.65172976
2434.0205,0.65189934
2436.0208,0.6520477
2438.0208,0.6521113
2440.0208,0.6520477
2442.0208,0.65166616
2444.0208,0.65166616
2446.0208,0.6519841
2448.0208,0.6521113
2450.0208,0.6521749
2452.0208,0.6522597
2454.0208,0.6526201
2456.0208,0.652938
2458.0208,0.6528108
2460.0208,0.65257764
2462.0208,0.6522597
2464.0208,0.65215373
2466.0208,0.6523657
2468.0208,0.65251404
2470.0208,0.65251404
2472.0208,0.6523657
2474.0208,0.6522385
2476.0208,0.6523657
2478.0208,0.6524929
2480.0208,0.6521749
2482.0208,0.6519841
2484.0208,0.6520689
2486.0208,0.6521749
2488.0208,0.6521113
2490.0208,0.6519841
2492.0208,0.6519205
2493.9893,0.6518781
2495.9893,0.65170854
2497.9893,0.65158135
2499.9893,0.6517509
2501.9893,0.65189934
2503.9893,0.65170854
2505.9893,0.65151775
2507.9893,0.6515602
2509.9893,0.65147537
2511.9893,0.651221
2513.9893,0.65139055
2515.9893,0.6513694
2517.9893,0.6511362
2519.9893,0.651009
2521.9893,0.6509878
2523.9893,0.6511574
2525.9893,0.6513058
2527.9893,0.6512422
2529.9893,0.6510938
2531.9893,0.650797
2533.9893,0.6504155
2535.9893,0.6501823
2537.9893,0.6500551
2539.9893,0.6501611
2541.9893,0.6500551
2543.9893,0.64984316
2545.9893,0.64963114
2547.9893,0.64944035
2549.9893,0.64950395
2551.9893,0.6494828
2553.9893,0.649186
2555.9893,0.64871967
2557.9893,0.6485925
2559.9893,0.6482957
2561.9893,0.6477233
2563.9893,0.64738417
2565.9893,0.64744776
2567.9893,0.64751136
2569.9893,0.6472146
2571.9893,0.6471934
2573.9893,0.64742655
2575.9893,0.64780813
2577.9893,0.64838046
2579.9893,0.648868
2581.9893,0.649186
2584.023,0.64937675
2586.023,0.64969474
2588.023,0.64975834
2590.023,0.64937675
2592.023,0.6490588
2594.023,0.64863485
2596.023,0.6479777
2598.023,0.6472994
2600.023,0.647045
2602.023,0.6469814
2604.023,0.6469178
2606.023,0.6474054
2608.023,0.6482109
2610.023,0.64848644
2612.023,0.6485925
2614.023,0.6488044
2616.023,0.64869845
2618.023,0.64857125
2620.023,0.6485289
2622.023,0.64831686
2624.023,0.6479141
2626.023,0.6477233
2628.023,0.6479565
2630.023,0.6480625
2632.023,0.64776576
2634.023,0.6476597
2636.023,0.64738417
2638.023,0.6470662
2640.023,0.647045
2642.023,0.6468966
2644.023,0.64700264
2646.023,0.64749014
2648.023,0.6479565
2650.0232,0.6481261
2652.0232,0.6481473
2654.0232,0.64774454
2656.0232,0.64749014
2658.0232,0.64744776
2660.0232,0.64742655
2662.0232,0.6474054
2664.0232,0.64742655
2665.9448,0.64732057
2667.9448,0.647469
2669.9448,0.6479141
2671.9448,0.6484017
2673.9448,0.64855003
2675.9448,0.64882565
2677.9448,0.6491224
2679.9448,0.6490588
2681.9448,0.6489316
2683.9448,0.64876205
2685.9448,0.64838046
2687.9448,0.6481049
2689.9448,0.6482321
2691.9448,0.64838046
2693.9448,0.6482321
2695.9448,0.6479777
2697.9448,0.64787173
2699.9448,0.6480625
2701.9448,0.6481685
2703.9448,0.6479989
2705.9448,0.64793533
2707.9448,0.6477869
2709.9448,0.6479989
2711.9448,0.6478929
2713.9448,0.6475326
2715.9448,0.6477233
2717.9448,0.64768094
2719.9448,0.6472994
2721.9448,0.6470238
2723.9448,0.6469602
2725.9448,0.6469602
2727.9448,0.64674824
2729.9448,0.646833
2731.9448,0.64657867
2733.9448,0.64657867
2735.9448,0.64700264
2737.9448,0.6469814
2739.9448,0.6466634
2741.9448,0.6465998
2743.9448,0.64657867
2745.9448,0.64668465
2747.9448,0.6470662
2749.9448,0.6469814
2751.9448,0.6468542
2753.9448,0.64681184
2755.9448,0.64668465
2757.9602,0.6468542
2759.9602,0.6470662
2761.9602,0.6469178
2763.9602,0.64649385
2765.9602,0.6461971
2767.9602,0.6460699
2769.9602,0.6459851
2771.9602,0.6460487
2773.9602,0.6459003
2775.9602,0.6460911
2777.9602,0.6463879
2779.9602,0.6463455
2781.9602,0.6460487
2783.9602,0.6459215
2785.9602,0.6460275
2787.9602,0.6460487
2789.9602,0.6462183
2791.9602,0.6462607
2793.9602,0.6461123
2795.9602,0.6459851
2797.9602,0.64581555
2799.9602,0.64560354
2801.9602,0.6451584
2803.9602,0.6448828
2805.9602,0.6450312
2807.9602,0.6452856
2809.9602,0.64560354
2811.9602,0.6456459
2813.9602,0.6452856
2815.9602,0.6452008
2817.9602,0.64517957
2819.9602,0.6451584
2821.9602,0.645222
2823.9602,0.6449676
2825.9602,0.6447768
2827.9602,0.6447132
2829.9602,0.64450127
2831.9602,0.6443317
2833.9602,0.6439925
2835.9602,0.6437593
2837.9602,0.6437593
2839.9602,0.64322937
2841.9602,0.64246625
2843.9602,0.64185154
2846.0125,0.6409612
2848.0125,0.6399013
2850.0125,0.6389474
2852.0125,0.6381631
2854.0125,0.6379511
2856.0125,0.63826907
2858.0125,0.6386718
2860.0125,0.63939255
2862.0125,0.6401345
2864.0125,0.64064324
2866.0125,0.6412368
2868.0125,0.64138514
2870.0125,0.6413004
2872.0125,0.64153355
2874.0125,0.6416183
2876.0125,0.64159715
2878.0125,0.64157593
2880.0125,0.64153355
2882.0125,0.6414276
2884.0125,0.641258
2886.0125,0.64077044
2888.0125,0.6396681
2890.0125,0.638799
2892.0125,0.639011
2894.0125,0.639541
2896.0125,0.63964695
2898.0125,0.6394774
2900.0125,0.63913816
2902.0125,0.63920176
2904.0125,0.63956213
2906.0125,0.63939255
2908.0125,0.63926536
2910.0125,0.63913816
2912.0125,0.63852346
2914.0125,0.6375483
2916.0125,0.6367216
2918.0125,0.6361069
2920.0125,0.6350894
2922.0461,0.63443226
2924.0461,0.63434744
2926.0461,0.63447464
2928.0461,0.6348774
2930.0461,0.6355981
2932.0461,0.6361705
2934.0461,0.636764
2936.0461,0.63737875
2938.0461,0.6379299
2940.0461,0.6386082
2942.0461,0.6393502
2944.0461,0.6402405
2946.0461,0.64045244
2948.0461,0.6400921
2950.0461,0.6401133
2952.0461,0.6401769
2954.0461,0.6400709
2956.0461,0.6399861
2958.0461,0.6399437
2960.0461,0.6400073
2962.0461,0.6398801
2964.0461,0.63949853
2966.0461,0.6394774
2968.0461,0.6398165
2970.0461,0.6404313
2972.0461,0.64083403
2974.0461,0.6405584
2976.0461,0.64034647
2978.0461,0.64028287
2980.0461,0.64064324
2982.0461,0.6411732
2984.0461,0.6413004
2986.0461,0.64134276
2988.0461,0.64151233
2990.0461,0.6416183
2992.0461,0.6416183
2994.0461,0.6417031
2996.0461,0.6417667
2998.0461,0.6417455
3000.0464,0.6421271
3002.0464,0.6422543
3003.958,0.6421907
3005.958,0.6420635
3007.958,0.6419575
3009.958,0.6419999
3011.958,0.6419999
3013.958,0.6419787
3015.958,0.6419363
3017.958,0.6418091
3019.958,0.64151233
3021.958,0.64108837
3023.958,0.64094
3025.958,0.64064324
3027.958,0.6398801
3029.958,0.6396681
3031.958,0.6397317
3033.958,0.6398165
3035.958,0.6396045
3037.958,0.639541
3039.958,0.6402193
3041.958,0.6409188
3043.958,0.6411308
3045.958,0.64094
3047.958,0.64053726
3049.958,0.64026165
3051.958,0.6400497
3053.958,0.639541
3055.958,0.6388838
3057.958,0.6388626
3059.958,0.63951975
3061.958,0.64057964
3063.958,0.6411308
3065.958,0.64115196
3067.958,0.64108837
3069.958,0.64089763
3071.958,0.6408128
3073.958,0.6406856
3075.958,0.64094
3077.958,0.6411732
3079.958,0.64072806
3081.958,0.64038885
3083.958,0.64028287
3086.0203,0.6400709
3088.0203,0.6399649
3090.0203,0.6399861
3092.0203,0.6396257
3094.0203,0.6389898
3096.0203,0.6389262
3098.0203,0.639117
3100.0203,0.6392442
3102.0203,0.63939255
3104.0203,0.6394774
3106.0203,0.639541
3108.0203,0.639541
3110.0203,0.63920176
3112.0203,0.6390322
3114.0203,0.639011
3116.0203,0.63869303
3118.0203,0.6384175
3120.0203,0.6387354
3122.0203,0.6391806
3124.0203,0.63907456
3126.0203,0.63869303
3128.0203,0.63837504
3130.0203,0.6382267
3132.0203,0.63818425
3134.0203,0.63826907
3136.0203,0.63862944
3138.0203,0.63862944
3140.0203,0.6383539
3142.0203,0.6381631
3144.0203,0.6379087
3146.0203,0.6381631
3148.0203,0.6380995
3150.0203,0.6379723
3152.0203,0.63818425
3154.0203,0.6382267
3156.0203,0.6378451
3158.0203,0.6376755
3160.0203,0.6377179
3162.0203,0.6377815
3164.0203,0.6376543
3166.0203,0.63742113
3168.0203,0.6371668
3170.0203,0.6367852
3172.054,0.636658
3174.054,0.63650966
3176.054,0.6359373
3178.054,0.6355981
3180.054,0.63536495
3182.054,0.6350046
3184.054,0.6348774
3186.054,0.63441104
3188.054,0.63398707
3190.054,0.6337751
3192.054,0.6333935
3194.054,0.632906
3196.054,0.6324397
3198.054,0.63235486
3200.054,0.63341475
3202.054,0.6349834
3204.054,0.6358313
3206.054,0.6360857
3208.054,0.6361069
3210.054,0.63619167
3212.054,0.6365308
3214.054,0.63657326
3216.054,0.63661563
3218.054,0.6364672
3220.054,0.63644606
3222.054,0.63606447
3224.054,0.6359373
3226.054,0.6361493
3228.054,0.6361493
3230.054,0.6362129
3232.054,0.63606447
3234.054,0.6355981
3236.054,0.6355981
3238.054,0.63568294
3240.054,0.63538617
3242.054,0.6350894
3244.054,0.6348986
3246.054,0.6348774
3248.054,0.6348562
3250.054,0.63441104
3252.054,0.6341355
3254.0593,0.6340931
3256.0593,0.6339023
3258.0593,0.6336267
3260.0593,0.6335207
3262.0593,0.6339023
3264.0593,0.6336267
3266.0593,0.632906
3268.0593,0.6328212
3270.0593,0.6329484
3272.0593,0.63273644
3274.0593,0.6327152
3276.0593,0.63239723
3278.0593,0.6318885
3280.0593,0.6316765
3282.0593,0.63140094
3284.0593,0.63121015
3286.0593,0.6310194
3288.0593,0.6308074
3290.0593,0.630871
3292.0593,0.6308922
3294.0593,0.63046825
3296.0593,0.6301291
3298.0593,0.6299383
3300.0593,0.6296203
3302.0593,0.62913275
3304.0593,0.6287936
3306.0593,0.62873
3308.0593,0.6287724
3310.0593,0.62845445
3312.0593,0.6278397
3314.0593,0.6272886
3316.0593,0.6269282
3318.0593,0.6267374
3320.0593,0.6266526
3322.0593,0.62637705
3324.0593,0.62618625
3326.0593,0.6258471
3328.0593,0.6251476
3330.0593,0.6245752
3331.941,0.62419367
3333.941,0.6237485
3335.941,0.62330335
3337.941,0.62266743
3339.941,0.6219467
3341.941,0.6213108
3343.941,0.6206324
3345.941,0.6197633
3347.941,0.6190426
3349.941,0.61827946
3351.941,0.6167744
3353.941,0.61531174
3355.941,0.61416703
3357.941,0.6127468
3359.941,0.6111357
3361.941,0.6087404
3363.941,0.6057091
3365.941,0.60255057
3367.941,0.59892577
3369.941,0.5942622
3371.941,0.5879452
3373.941,0.57967806
3375.941,0.56867635
3377.941,0.5537318
3379.941,0.5346325
3381.941,0.51572394
3384.0195,0.5117387
3386.0195,0.53690064
3388.0195,0.5790845
3390.0198,0.61306477
3392.0198,0.63129497
3394.0198,0.6390958
3396.0198,0.6416183
3398.0198,0.6421059
3400.0198,0.6419575
3402.0198,0.64115196
3404.0198,0.6399225
3406.0198,0.63875663
3408.0198,0.6379087
3410.0198,0.63737875
3412.0198,0.63674283
3414.0198,0.6355981
3416.0198,0.634517
3418.0198,0.6340083
3420.0198,0.63335115
3422.0198,0.6318249
3424.0198,0.63034105
3426.0198,0.62964153
3428.0198,0.6296627
3430.0198,0.62915397
3432.0198,0.62807286
3434.0198,0.62718254
3436.0198,0.6266102
3438.0415,0.62557155
3440.0415,0.62442684
3442.0415,0.62330335
3444.0415,0.62224346
3446.0415,0.62141675
3448.0415,0.61959374
3450.0415,0.61732554
3452.0415,0.6157357
3454.0415,0.61367947
3456.0415,0.61096615
3458.0415,0.60793483
3460.0415,0.60443723
3462.0415,0.5999432
3464.0415,0.5943682
3466.0415,0.58769083
3468.0415,0.5785546
3470.0415,0.56784964
3472.0415,0.5576958
3474.0415,0.5531595
3476.0415,0.5609391
3478.0415,0.580314
3480.0417,0.6025082
3482.0417,0.62141675
3484.0469,0.63430506
3486.0469,0.64157593
3488.0469,0.6454552
3490.0469,0.64763856
3492.0469,0.64863485
3494.0469,0.649292
3496.0469,0.64956754
3498.0469,0.6492496
3500.0469,0.6485925
3502.0469,0.6483593
3504.0469,0.6479989
3506.0469,0.647257
3508.0469,0.6467694
3510.0469,0.64662105
3512.0469,0.6463879
3514.0469,0.6463243
3516.0469,0.6461971
3518.0469,0.6459215
3520.0469,0.64573073
3522.0469,0.64556116
3524.0469,0.64547634
3526.0469,0.64492524
3528.0469,0.6445224
3530.0469,0.6446496
3532.0469,0.6446496
3534.0469,0.64467084
3536.0469,0.64524317
3538.0469,0.645222
3540.0469,0.6452856
3542.0469,0.6450524
3544.0469,0.64479804
3546.0469,0.64469206
3548.0469,0.64460725
3550.0469,0.64467084
3552.0469,0.6448404
3554.0469,0.64501
3556.0469,0.6453916
3558.0469,0.6454552
3560.0469,0.64549756
3561.9954,0.64556116
3563.9954,0.645328
3565.9954,0.64479804
3567.9954,0.6439925
3569.9954,0.64448005
3571.9954,0.6457095
3573.9954,0.6463455
3575.9954,0.64643025
3577.9954,0.64649385
3579.9954,0.64674824
3581.9954,0.6469814
3583.9954,0.647469
3585.9954,0.64738417
3587.9954,0.64562476
3589.9954,0.6458367
3591.9954,0.6469814
3593.9954,0.6470238
3595.9954,0.6464515
3597.9954,0.6459851
3599.9954,0.6462819
3601.9954,0.6471298
3603.9954,0.6477869
3605.9954,0.64751136
3607.9954,0.6469178
3609.9954,0.64668465
3611.9954,0.6471086
3613.9954,0.6474054
3615.9954,0.64751136
3617.9954,0.64749014
3619.9954,0.6471722
3621.9954,0.6470238
3623.9954,0.64751136
3625.9954,0.6480837
3627.9954,0.6483381
3629.9954,0.64657867
3632.019,0.6461335
3634.019,0.6468966
3636.019,0.64770216
3638.019,0.6482745
3640.019,0.6484653
3642.019,0.6484229
3644.019,0.64876205
3646.019,0.649186
3648.019,0.64861363
3650.019,0.6479565
3652.019,0.6474054
3654.019,0.6481473
3656.019,0.6483593
3658.019,0.6481685
3660.019,0.6492284
3662.019,0.64937675
3664.019,0.6492284
3666.019,0.64971596
3668.019,0.6502247
3670.019,0.64944035
3672.019,0.6480837
3674.019,0.64952517
3676.019,0.6493556
3678.019,0.647469
3680.019,0.6480625
3682.019,0.6490588
3684.019,0.65001273
3686.019,0.6504791
3688.019,0.65045786
3690.019,0.6503095
3692.019,0.6490588
3694.019,0.64871967
3696.019,0.64908
3698.019,0.6492708
3700.019,0.64984316
3702.019,0.6498643
3704.0427,0.6491436
3706.0427,0.64937675
3708.0427,0.6496099
3710.0427,0.64956754
3712.0427,0.64901644
3714.0427,0.6485289
3716.0427,0.6489316
3718.0427,0.64971596
3720.0427,0.6501611
3722.0427,0.6498007
3724.0427,0.6490376
3726.0427,0.64888924
3728.0427,0.648868
3730.0427,0.64937675
3732.0427,0.6500975
3734.0427,0.64984316
3736.0427,0.64838046
3738.0427,0.6478505
3740.043,0.6480625
3742.043,0.6480201
3744.043,0.64825326
3746.043,0.6474054
3748.043,0.6480837
3750.043,0.64761734
3752.043,0.64780813
3754.043,0.64863485
3756.043,0.64895284
3758.043,0.64939797
3760.043,0.6492496
3762.043,0.6491648
3764.043,0.64965236
3766.043,0.6491648
3768.043,0.6489952
3770.043,0.64952517
3772.043,0.6492284
3774.043,0.6493344
3775.9446,0.6494192
3777.9446,0.6493556
3779.9446,0.648974
3781.9446,0.64869845
3783.9446,0.648974
3785.9446,0.6492708
3787.9446,0.64977956
3789.9446,0.65020347
3791.9446,0.65052146
3793.9446,0.6505427
3795.9446,0.6501611
3797.9446,0.6490376
3799.9446,0.64946157
3801.9446,0.6498007
3803.9446,0.6487832
3805.9446,0.64901644
3807.9446,0.64861363
3809.9446,0.64882565
3811.9446,0.64895284
3813.9446,0.64965236
3815.9446,0.65039426
3817.9446,0.6500339
3819.9446,0.6505427
3821.9446,0.64939797
3823.9446,0.64869845
3825.9446,0.6494828
3827.9446,0.64963114
3829.9446,0.64988554
3831.9446,0.65020347
3833.9446,0.65045786
3835.9446,0.6503095
3837.9446,0.64944035
3839.9446,0.64857125
3841.9446,0.64863485
3843.9446,0.64871967
3845.9446,0.64867723
3847.9866,0.6491224
3849.9866,0.64946157
3851.9866,0.64876205
3853.9866,0.6462183
3855.9866,0.6472146
3857.9866,0.6479777
3859.9866,0.64844406
3861.9866,0.6489952
3863.9866,0.6490376
3865.9866,0.64855003
3867.9866,0.6496099
3869.9866,0.6492072
3871.9866,0.6461547
3873.9866,0.64668465
3875.9866,0.64761734
3877.9866,0.6484017
3879.9866,0.64863485
3881.9866,0.64848644
3883.9866,0.6491224
3885.9866,0.64882565
3887.9866,0.64861363
3889.9866,0.64937675
3891.9866,0.6492072
3893.9866,0.64863485
3895.9866,0.6491224
3897.9866,0.6499703
3899.9866,0.64982194
3901.9866,0.64939797
3903.9866,0.64937675
3905.9866,0.64888924
3907.9866,0.64895284
3909.9866,0.6497371
3911.9866,0.65075463
3914.002,0.65090305
3916.002,0.6506063
3918.002,0.65050024
3920.002,0.6501823
3922.002,0.6501187
3924.002,0.6506699
3926.002,0.6503095
3928.002,0.6501399
3930.002,0.6504155
3932.002,0.65062743
3934.002,0.65075463
3936.002,0.6507335
3938.002,0.6504791
3940.002,0.6502247
3942.002,0.65033066
3944.002,0.6501611
3946.002,0.65026706
3948.002,0.6504155
3950.002,0.6501399
3952.002,0.65033066
3954.002,0.65039426
3956.002,0.65045786
3958.002,0.65077585
3960.002,0.65062743
3962.002,0.6506063
3964.002,0.6508606
3966.002,0.65064865
3968.002,0.6510302
3970.002,0.65151775
3972.002,0.651115
3974.002,0.65071225
3976.002,0.65096664
3978.002,0.6511574
3980.002,0.6513482
3982.002,0.65151775
3984.002,0.6514118
3986.002,0.6512634
3988.002,0.65147537
3990.002,0.6514966
3992.002,0.6512422
3994.002,0.65096664
3996.002,0.6508182
3998.002,0.65090305
4000.002,0.6509454



